Data from USB2G573481__9__15-44-43-480.txt Node

Date: Tue Dec 02 15:44:43 EST 2025
User: maryl
Spectrometer: USB2G57348
Scans to average: 1
Trigger mode: 4
Integration Time (sec): 1,500000E-2
Electric dark correction enabled: true
Boxcar width: 0
XAxis mode: Wavelengths
Number of Pixels in Spectrum: 651
>>>>>Begin Spectral Data<<<<<
350	-1,32
351	1,66
352	-1,28
353	-0,54
354	1,49
355	3,94
356	1,51
357	0,49
358	3,26
359	-0,04
360	0,69
361	2,6
362	0,75
363	-0,57
364	3,43
365	1,05
366	1,11
367	4,43
368	0,38
369	5,13
370	0,62
371	3,93
372	2,02
373	-0,39
374	5,13
375	1,52
376	3,63
377	0,18
378	6,58
379	3,98
380	3,44
381	4,55
382	5,08
383	6,31
384	2,49
385	8,17
386	3,41
387	0,48
388	5,67
389	6,71
390	5,38
391	9,04
392	7,66
393	9,59
394	8,73
395	9,01
396	6,51
397	8,44
398	9,71
399	7,43
400	7,09
401	10,83
402	11,4
403	13,04
404	10,83
405	12,46
406	15,32
407	14,04
408	12,46
409	13,08
410	13,46
411	16,5
412	15,78
413	16,14
414	16,54
415	16,81
416	17,7
417	21,67
418	20,89
419	18,87
420	22,15
421	22,28
422	20,51
423	21,8
424	23,54
425	26,34
426	27,36
427	31,84
428	33,64
429	29,19
430	35,54
431	32,44
432	35,78
433	35,22
434	30,92
435	39,6
436	37,13
437	38,23
438	39,74
439	44,7
440	41,44
441	41,27
442	48,71
443	51,38
444	49,32
445	52,7
446	49,59
447	53,04
448	59,22
449	58,05
450	63,48
451	64,96
452	67,49
453	68,94
454	67,87
455	75,87
456	76,15
457	84,48
458	85,53
459	90,08
460	94,36
461	89,48
462	101,7
463	103,16
464	106,46
465	111,01
466	117,23
467	121,65
468	135,87
469	136,69
470	149,46
471	159
472	167,53
473	169,18
474	168,11
475	180,1
476	178,73
477	189,69
478	213,14
479	222,45
480	236,11
481	241,25
482	242,5
483	242,24
484	269,08
485	306,52
486	328,6
487	337,98
488	331,1
489	332,99
490	339,55
491	376,81
492	420,94
493	415,48
494	396,76
495	405,09
496	444,99
497	473,02
498	495,67
499	470,55
500	452,35
501	499,65
502	563,06
503	566,4
504	503,88
505	521,04
506	595,73
507	623,48
508	588,49
509	558,62
510	625,46
511	699,76
512	655,53
513	605,44
514	675,19
515	766,99
516	714,01
517	641,28
518	756,85
519	834,96
520	729,6
521	691,49
522	838,11
523	870,67
524	749,96
525	813,48
526	961,79
527	861,76
528	797,83
529	978,89
530	983,76
531	823,54
532	986,26
533	1079,25
534	903,1
535	968,35
536	1177,92
537	988,39
538	992,95
539	1223,95
540	1046,92
541	1036,58
542	1323,99
543	1113,55
544	1072,82
545	1377,19
546	1139,88
547	1111,74
548	1409,26
549	1131,75
550	1260,81
551	1498,46
552	1147,37
553	1390,51
554	1452,44
555	1115,74
556	1539,45
557	1384,25
558	1240,49
559	1646,79
560	1229,46
561	1432,65
562	1615,6
563	1206,11
564	1685,86
565	1400,14
566	1378,11
567	1719,99
568	1211,94
569	1708,47
570	1463,22
571	1397,13
572	1794,21
573	1186,65
574	1574,49
575	1335,7
576	1418,25
577	1762,32
578	1249,86
579	1845,4
580	1279,38
581	1653,86
582	1537,92
583	1382,98
584	1804,42
585	1201,48
586	1852,47
587	1272,53
588	1687
589	1487,1
590	1488,21
591	1749,47
592	1296,59
593	1917,46
594	1233,07
595	1979,26
596	1295,12
597	1895,6
598	1491,13
599	1749,47
600	1687,13
601	1582,5
602	1762,58
603	1420,25
604	2041,93
605	1311,46
606	2146,08
607	1294,62
608	2195,62
609	1290,03
610	2204,27
611	1299,12
612	2162,03
613	1333,72
614	2135,26
615	1392,5
616	2105,09
617	1411,92
618	2082,65
619	1460,5
620	2116,57
621	1472,39
622	2101,93
623	1465,31
624	2123,05
625	1440,28
626	2175,6
627	1381,39
628	2203,64
629	1341,28
630	2265,87
631	1263,6
632	2274,21
633	1210,89
634	2321,8
635	1181,92
636	2299,63
637	1193,75
638	2216,98
639	1288,24
640	2097,84
641	1437,43
642	1888,11
643	1668,83
644	1633,05
645	1901,13
646	1354,65
647	2162,74
648	1171,17
649	2285,78
650	1110,32
651	2254,62
652	1232,57
653	2024,38
654	1524,49
655	1663,54
656	1899,61
657	1270,44
658	2223,96
659	1083,2
660	2306,82
661	1198,46
662	2016,41
663	1582,04
664	1560,23
665	2057,89
666	1144,81
667	2323,12
668	1114,02
669	2156,63
670	1486,9
671	1573,07
672	2012,64
673	1124,12
674	2280,44
675	1127,41
676	2033,79
677	1679,1
678	1429,84
679	2282,1
680	1072,95
681	2279,02
682	1398,76
683	1721,16
684	2094,69
685	1119,9
686	2405,91
687	1237,29
688	1869,23
689	1989,1
690	1133,85
691	2380,1
692	1181,77
693	1882,45
694	1963,42
695	1107,36
696	2364,15
697	1201,17
698	1768,47
699	2038,45
700	1013,31
701	2259,9
702	1356,09
703	1531,58
704	2184,61
705	980,89
706	2099,33
707	1616,89
708	1172,54
709	2248,32
710	1072,65
711	1652,27
712	1949,04
713	925,16
714	2065,93
715	1457,71
716	1122,87
717	2155,14
718	1051,15
719	1513,12
720	1958,28
721	862,78
722	1872,24
723	1551,19
724	936,41
725	2055,84
726	1195,18
727	1156,33
728	2022,64
729	927,41
730	1412,9
731	1852,01
732	800,57
733	1628,01
734	1629,93
735	783,83
736	1759,93
737	1396,68
738	806,69
739	1803,8
740	1186,38
741	873,17
742	1794,19
743	1004,84
744	957,41
745	1765
746	908,14
747	1002,04
748	1688,71
749	824,45
750	1031,25
751	1597,73
752	764,36
753	1023,02
754	1575,28
755	736,36
756	989,07
757	1544,19
758	720,62
759	927,17
760	1485,11
761	708,18
762	873,37
763	1465,1
764	733,23
765	769,87
766	1408,73
767	766,99
768	695,36
769	1358,83
770	820,56
771	599,38
772	1265,6
773	882,53
774	500,23
775	1120,12
776	961,29
777	470,87
778	974,06
779	1030,52
780	472,34
781	789,99
782	1075,27
783	510,49
784	624,87
785	1064,67
786	625,07
787	459,75
788	970,69
789	741,44
790	383,51
791	803,09
792	862,29
793	394,64
794	610,5
795	941,35
796	503,51
797	439,24
798	898,63
799	679,18
800	345,04
801	726,16
802	826,62
803	385,25
804	516,23
805	867,51
806	542,33
807	353,52
808	774,54
809	741,5
810	345,22
811	535,64
812	803,19
813	472,2
814	334,58
815	679,15
816	632,05
817	299,55
818	475,79
819	703,43
820	425
821	290,88
822	601,11
823	607,3
824	274,51
825	370,1
826	614,36
827	450,52
828	240,27
829	473,66
830	590,2
831	310,21
832	268,92
833	532,1
834	486,89
835	228,61
836	339,92
837	539,79
838	370,18
839	204,85
840	388,1
841	508,95
842	292,2
843	207,28
844	440,24
845	460,33
846	234,15
847	241,84
848	456,66
849	410,07
850	190,89
851	259,96
852	439,94
853	340,56
854	166,8
855	290,71
856	425,38
857	307,41
858	168,51
859	283,71
860	405,31
861	270,31
862	161,16
863	277,99
864	378,94
865	241,3
866	148,59
867	279,46
868	360,48
869	241,71
870	142,97
871	262,11
872	356,24
873	230,17
874	132,4
875	243,37
876	323,85
877	222,94
878	122,58
879	224,02
880	323,29
881	232,36
882	124,25
883	210,74
884	310,86
885	251,58
886	128,19
887	187,22
888	311,47
889	283,18
890	146,27
891	155,05
892	287,87
893	295,52
894	161,08
895	133,32
896	250,55
897	308,16
898	191,5
899	122,37
900	210,14
901	291,32
902	216,41
903	110,49
904	157,73
905	259,27
906	232,73
907	128,31
908	113,62
909	212,26
910	241,73
911	154,44
912	93,53
913	159,02
914	232,62
915	185,82
916	98,32
917	110,38
918	189,63
919	199,73
920	127,59
921	80,53
922	135,27
923	190,72
924	148,97
925	80,18
926	89,04
927	156,19
928	170,8
929	103,92
930	64,34
931	103,47
932	166,8
933	123,65
934	73,63
935	68,42
936	120,29
937	143,15
938	109,17
939	57,38
940	77,95
941	121,48
942	120,78
943	79,7
944	49,65
945	83,5
946	116,14
947	101,97
948	59,95
949	48,03
950	85,74
951	111,33
952	86,75
953	45,31
954	45,71
955	81,36
956	93,48
957	70,33
958	40,27
959	45,73
960	72,45
961	85,3
962	54,41
963	33,62
964	47,14
965	69,61
966	74,14
967	47,13
968	34,69
969	44,23
970	57,63
971	65,9
972	46,88
973	31,52
974	37,58
975	51,91
976	51,79
977	45,92
978	24,45
979	29,93
980	42,06
981	45,69
982	39,69
983	28,42
984	28,1
985	35,03
986	45,4
987	34,16
988	23,31
989	21,24
990	32,13
991	42,55
992	31,55
993	21,38
994	21,61
995	23,49
996	28,69
997	32,08
998	18,21
999	18,78
1000	18,51
