Data from USB2G573481__13__15-52-12-835.txt Node

Date: Tue Dec 02 15:52:12 EST 2025
User: maryl
Spectrometer: USB2G57348
Scans to average: 1
Trigger mode: 4
Integration Time (sec): 1,500000E-2
Electric dark correction enabled: true
Boxcar width: 0
XAxis mode: Wavelengths
Number of Pixels in Spectrum: 651
>>>>>Begin Spectral Data<<<<<
350	0,21
351	-1,96
352	-0,17
353	2,23
354	-0,31
355	-0,91
356	0,4
357	2,04
358	-0,72
359	2,12
360	1,12
361	0,43
362	-0,39
363	1,94
364	-0,8
365	1,57
366	2,53
367	3,3
368	-0,05
369	3,57
370	1,02
371	0,76
372	-0,93
373	1,98
374	3,4
375	0,34
376	2,18
377	4,61
378	3,36
379	6,22
380	2,06
381	3,07
382	2,32
383	1,77
384	3,21
385	5,61
386	3,1
387	5,24
388	9,12
389	5,51
390	9,28
391	6,59
392	7,82
393	7,93
394	4,34
395	5,05
396	7,36
397	7,04
398	8,78
399	10,15
400	8,36
401	10,87
402	11,19
403	10,6
404	11,41
405	13,31
406	10
407	12,1
408	8,25
409	8,27
410	9,98
411	12,26
412	18,08
413	17,91
414	18,43
415	20,76
416	19,82
417	18,24
418	17,75
419	16,86
420	15,19
421	18
422	16,82
423	20,09
424	22,69
425	28,68
426	28,01
427	33,29
428	32,91
429	30,56
430	26,2
431	24,65
432	21,63
433	20,47
434	21,12
435	27,4
436	38,79
437	36,84
438	49,09
439	53
440	52,11
441	48,69
442	37,62
443	37,31
444	37,63
445	29,02
446	31,18
447	37,02
448	43,04
449	55,4
450	66,25
451	82,22
452	81,99
453	81,97
454	83,61
455	71,82
456	59,13
457	51,32
458	46,14
459	46,67
460	50,45
461	75,62
462	86,57
463	108,79
464	123,18
465	140,75
466	147,61
467	152,33
468	137,16
469	123,08
470	104,32
471	89,05
472	81,07
473	89,99
474	101,07
475	136,46
476	171,43
477	201,37
478	268,45
479	283,94
480	311,06
481	292,24
482	284,03
483	249,27
484	217,36
485	186,26
486	163,13
487	160,23
488	183,62
489	234,36
490	301,02
491	379,41
492	463,14
493	515,4
494	541,5
495	563,12
496	552,73
497	496,25
498	422,62
499	354,96
500	286,85
501	262,53
502	263,79
503	295,24
504	361,11
505	455,28
506	569,83
507	668,43
508	773,32
509	823,76
510	831,22
511	801,76
512	745,85
513	642,23
514	543,03
515	448,69
516	393,48
517	346,05
518	363,5
519	430,56
520	526,25
521	639,62
522	807,2
523	961,68
524	1056,58
525	1131,32
526	1170,34
527	1117,24
528	1058,1
529	920,96
530	792,51
531	636,33
532	535,63
533	468,2
534	463,08
535	530,07
536	641,84
537	810,16
538	992,67
539	1202,08
540	1387,56
541	1501,59
542	1569,69
543	1575,1
544	1506,57
545	1380,04
546	1226,85
547	1044,43
548	851,35
549	698,44
550	614,01
551	587,12
552	628,82
553	768,81
554	945,46
555	1181,72
556	1420,26
557	1633,87
558	1817,55
559	1911,81
560	1974,21
561	1946,84
562	1800,45
563	1621,84
564	1421,63
565	1181,87
566	971,12
567	800,84
568	674,63
569	645,93
570	707,63
571	819,27
572	1021,8
573	1248,35
574	1424,44
575	1692,54
576	1856,74
577	2080,54
578	2188,97
579	2186,54
580	2071,81
581	1913,12
582	1685,22
583	1436,73
584	1192,24
585	963,43
586	797,1
587	692,22
588	652,31
589	676,61
590	798,18
591	967,55
592	1225,62
593	1476,94
594	1739,26
595	1969,28
596	2204,78
597	2346,18
598	2405,54
599	2332,49
600	2140,44
601	2037,5
602	1739,19
603	1578,61
604	1345,6
605	1066,1
606	856,84
607	741,25
608	695,13
609	716,53
610	830,91
611	1005,2
612	1257,51
613	1507,89
614	1791,99
615	2029,31
616	2303,44
617	2483,87
618	2593,23
619	2618,03
620	2570
621	2417,89
622	2190,68
623	1962,67
624	1696,41
625	1384,9
626	1131,34
627	931,05
628	773,95
629	681,61
630	667,7
631	737,51
632	881,07
633	1079,01
634	1321,69
635	1574,77
636	1891,9
637	2086,07
638	2304,86
639	2443,06
640	2538,15
641	2555,21
642	2497,67
643	2387,42
644	2190,55
645	1943,89
646	1691,8
647	1447,76
648	1190,66
649	955,79
650	788,37
651	673,94
652	598,72
653	612,43
654	704,16
655	845,45
656	1042,81
657	1264,52
658	1533,76
659	1785,78
660	2027,28
661	2221,19
662	2393,8
663	2514,24
664	2534,43
665	2514,26
666	2452,7
667	2317,48
668	2131,54
669	1882,38
670	1625,46
671	1395,23
672	1153,68
673	933,29
674	773,07
675	649,07
676	600,46
677	607,94
678	672,26
679	800,81
680	976
681	1178,08
682	1428,3
683	1693,88
684	1962,59
685	2197,45
686	2364,91
687	2504,4
688	2612,15
689	2608,26
690	2598,99
691	2487,3
692	2385,15
693	2202,57
694	2013,54
695	1769,56
696	1510,42
697	1281,32
698	1059,01
699	853,72
700	707,92
701	624,3
702	585,34
703	597,44
704	649,87
705	741,25
706	900,85
707	1085,33
708	1269,46
709	1495,2
710	1716,53
711	1929,61
712	2072
713	2202,51
714	2297,88
715	2344,44
716	2376,67
717	2371,5
718	2309,59
719	2140,02
720	2001,81
721	1797,99
722	1596,49
723	1350,74
724	1175,15
725	973,23
726	818,91
727	681,95
728	578,25
729	512,46
730	486,21
731	489,83
732	542,53
733	647,87
734	743,12
735	884,01
736	1031,62
737	1183,98
738	1356,56
739	1503,09
740	1636,71
741	1755,74
742	1831,4
743	1863,04
744	1896,1
745	1881,66
746	1847,08
747	1779,9
748	1680,67
749	1540,7
750	1371,82
751	1249,76
752	1099,94
753	951,1
754	802,72
755	679,26
756	578,53
757	489,74
758	420,92
759	392,29
760	373,44
761	385,13
762	420,31
763	474,98
764	530,87
765	613,5
766	719,1
767	810,48
768	907,19
769	1006,28
770	1080,21
771	1176,71
772	1228,7
773	1270,48
774	1307,97
775	1309,73
776	1299,94
777	1250,86
778	1212,86
779	1131,57
780	1073,71
781	979,11
782	890,43
783	787,09
784	698,13
785	604,63
786	517,13
787	439,2
788	375,11
789	323,17
790	287,47
791	264,4
792	257,14
793	249,27
794	266,08
795	305,27
796	339,31
797	397,69
798	448,6
799	516,23
800	565,68
801	624,49
802	680,18
803	730,32
804	774,97
805	829,11
806	865,13
807	882,02
808	895,73
809	887,82
810	858,92
811	844,07
812	804,68
813	761,33
814	698,68
815	643,65
816	603,03
817	538,35
818	497,75
819	428,31
820	375,82
821	323,31
822	282,55
823	254,97
824	214
825	197,8
826	185,55
827	182,07
828	170,03
829	182,45
830	206,75
831	222,48
832	238,7
833	263,3
834	297,85
835	318,62
836	354,31
837	389,3
838	413,67
839	445,11
840	457,8
841	485,55
842	495,88
843	514,1
844	517,95
845	510,11
846	509,07
847	482,42
848	484,68
849	463,69
850	449,15
851	405,25
852	388,4
853	365,4
854	333,96
855	293,21
856	269,06
857	229,54
858	201,19
859	185,66
860	169,02
861	145,59
862	133,6
863	127,59
864	111,71
865	114,27
866	111,98
867	110,15
868	122,13
869	138,04
870	138,57
871	152,78
872	172,6
873	186,85
874	200,43
875	226,91
876	253,34
877	257,89
878	267,51
879	282,6
880	300,48
881	314,8
882	317,83
883	320,61
884	332,53
885	331,23
886	341,71
887	328,95
888	312,14
889	310,22
890	302,54
891	284,02
892	272,23
893	244,94
894	235,1
895	215,52
896	204,67
897	182,58
898	169,83
899	148,37
900	135,94
901	113,92
902	108,58
903	102,85
904	91,27
905	83,06
906	84,87
907	81,23
908	80,35
909	83,74
910	89,27
911	97,53
912	98,89
913	105,46
914	115,17
915	124,77
916	125,28
917	141,2
918	149,66
919	154,21
920	165,02
921	168,71
922	181,07
923	172,68
924	179,59
925	180,87
926	175,29
927	178,18
928	166,67
929	171,42
930	179,8
931	167,77
932	156,37
933	160,52
934	145,13
935	124,23
936	122,98
937	112,22
938	101,28
939	97,26
940	88,37
941	78,24
942	72
943	62,45
944	61,75
945	53,7
946	52,62
947	48,51
948	42,94
949	42,05
950	40,45
951	35,17
952	31,14
953	36,83
954	35,92
955	36,36
956	33,6
957	35,23
958	37,06
959	39,56
960	43,38
961	44,53
962	44,24
963	53,62
964	54,11
965	50,89
966	54,06
967	63,37
968	59,41
969	60,41
970	63,23
971	63,2
972	63,33
973	65,34
974	62,22
975	63,41
976	57,37
977	55,21
978	52,13
979	50,85
980	53,63
981	48,41
982	46,83
983	48,21
984	41,42
985	42,3
986	34,17
987	36,67
988	31,69
989	31,55
990	26,65
991	24,62
992	22,08
993	19,24
994	19,45
995	16,47
996	14,12
997	13,38
998	15,12
999	13,79
1000	7,13
