Data from USB2G573481__26__16-12-55-734.txt Node

Date: Tue Dec 02 16:12:55 EST 2025
User: maryl
Spectrometer: USB2G57348
Scans to average: 1
Trigger mode: 4
Integration Time (sec): 1,000000E-2
Electric dark correction enabled: true
Boxcar width: 0
XAxis mode: Wavelengths
Number of Pixels in Spectrum: 651
>>>>>Begin Spectral Data<<<<<
350	0,02
351	-0,37
352	0,05
353	-0,69
354	1
355	-0,27
356	0,19
357	0,38
358	1,48
359	0,02
360	0,45
361	5,11
362	-1,63
363	0,53
364	0,36
365	1,58
366	1,76
367	2,2
368	2,41
369	1,13
370	3,85
371	0,66
372	4,7
373	2,21
374	2,05
375	3,12
376	3,82
377	2,46
378	2,26
379	1,93
380	5,29
381	2,32
382	7,05
383	1,19
384	4,31
385	2,87
386	4,27
387	7,28
388	7,13
389	7,14
390	7,34
391	7,6
392	7,96
393	6,42
394	10,68
395	12,72
396	12,29
397	12,21
398	9,42
399	10,48
400	13,48
401	11,99
402	14,3
403	12,82
404	13,4
405	14,25
406	18,01
407	19,76
408	16,33
409	20,9
410	17,86
411	24,31
412	20,84
413	23,27
414	23,55
415	22,31
416	25,39
417	23,54
418	28,19
419	28,6
420	30,57
421	30,07
422	33,34
423	32,06
424	33,52
425	35,9
426	36,61
427	35,29
428	39,86
429	40,39
430	39,34
431	47,33
432	47,96
433	41,29
434	47,16
435	49,46
436	54,44
437	57,04
438	57,61
439	54,84
440	55,2
441	59,84
442	60,75
443	70,01
444	68,83
445	63,42
446	68,69
447	71,63
448	78,29
449	81,36
450	81,38
451	80,72
452	83,17
453	91,08
454	103,79
455	98,53
456	96,48
457	106,52
458	115,98
459	120,46
460	117,21
461	112,13
462	124,69
463	142,28
464	128,25
465	128,55
466	151,99
467	170,38
468	158,43
469	161,04
470	203,28
471	211,03
472	179,7
473	199,29
474	234,02
475	227,7
476	203,66
477	262
478	277,06
479	243,71
480	271,48
481	341,24
482	294,72
483	299,4
484	388,09
485	359,43
486	327,18
487	442,47
488	420,82
489	369,15
490	488,01
491	484,7
492	408,29
493	538,57
494	524,26
495	441,42
496	603,31
497	550,47
498	493,63
499	670,72
500	560,16
501	560,37
502	720,94
503	559,78
504	660,69
505	732,52
506	569,15
507	782
508	692,29
509	643,1
510	860,33
511	633,08
512	809,83
513	834,2
514	667,83
515	957,49
516	706,12
517	867,6
518	919,87
519	741,8
520	1049,13
521	737,95
522	970,48
523	950,77
524	851,03
525	1119,53
526	786,34
527	1158,48
528	885,06
529	1091,33
530	1077,74
531	960,63
532	1263,9
533	880,92
534	1342,61
535	937,48
536	1294,25
537	1076,39
538	1197,33
539	1269,3
540	1095,13
541	1461,27
542	1015,51
543	1562,61
544	1017,38
545	1643,95
546	1048,25
547	1612,58
548	1154,17
549	1599
550	1247,63
551	1550,59
552	1328,67
553	1502,98
554	1442,43
555	1449,85
556	1541,32
557	1445,9
558	1603,22
559	1411,8
560	1662,63
561	1411,04
562	1682,66
563	1431,62
564	1702,56
565	1467,14
566	1702,52
567	1513,29
568	1663,54
569	1576,95
570	1609,92
571	1699,02
572	1530,4
573	1647,39
574	1388,48
575	1881,87
576	1276,41
577	1981,81
578	1268,4
579	2055,71
580	1173,5
581	2093,44
582	1171,42
583	2032,8
584	1295,06
585	1834,47
586	1498,96
587	1626,28
588	1758,91
589	1395,78
590	1998,45
591	1198,07
592	2185,94
593	1202,81
594	2076,75
595	1396,38
596	1834,55
597	1753,68
598	1516,2
599	2138,1
600	1278,53
601	2170,04
602	1272,34
603	2042,98
604	1679,87
605	1651,47
606	2137
607	1258,24
608	2324,73
609	1301,95
610	2129,87
611	1783,33
612	1567,93
613	2297,5
614	1216,09
615	2333,01
616	1473,22
617	1792,47
618	2149,54
619	1276,97
620	2452,74
621	1347,74
622	1958,33
623	2026,6
624	1296,1
625	2456,8
626	1321,99
627	2016,85
628	2037,48
629	1266,93
630	2454,78
631	1318,66
632	1904,74
633	2110,58
634	1146,62
635	2388,87
636	1482,11
637	1607,73
638	2303,2
639	1091,3
640	2165,27
641	1734,94
642	1243,4
643	2372,99
644	1227,12
645	1716,82
646	2163,24
647	1048,19
648	2144,64
649	1734,18
650	1201,95
651	2373,1
652	1280,73
653	1540,69
654	2256,58
655	1032,56
656	1892,27
657	2003,25
658	1013,88
659	2184,26
660	1673,33
661	1138,5
662	2348,7
663	1367,77
664	1356,38
665	2353,52
666	1185,88
667	1585,69
668	2302,63
669	1060,64
670	1779,85
671	2161,98
672	986,32
673	1892,5
674	2057,63
675	977,33
676	2039,66
677	2015
678	991,14
679	2136,45
680	1956,12
681	968,48
682	2162,01
683	1971,32
684	975,23
685	2160,96
686	1986,03
687	965,98
688	2120,17
689	2037,94
690	970,92
691	2030,94
692	2095,28
693	965,16
694	1878,54
695	2160,87
696	981,66
697	1685,5
698	2253,29
699	1055,73
700	1483,15
701	2290,38
702	1187,43
703	1247,58
704	2291,67
705	1397,23
706	1004,58
707	2142,91
708	1710,48
709	879,61
710	1894,05
711	1959,61
712	865,6
713	1534,7
714	2121,82
715	1059,48
716	1160,93
717	2113,58
718	1377,95
719	847,98
720	1905,3
721	1778,14
722	803,86
723	1444,7
724	1995,89
725	1027,5
726	998,12
727	1968,64
728	1433,06
729	745,68
730	1581,39
731	1775,73
732	830,11
733	1062,8
734	1887,88
735	1271,75
736	727,14
737	1541,71
738	1702,84
739	795,45
740	981,5
741	1767,3
742	1229,79
743	653,83
744	1354,05
745	1633,17
746	804,21
747	805,15
748	1568,31
749	1286,91
750	606,85
751	1077,18
752	1596,06
753	951,19
754	588,31
755	1286,94
756	1437,14
757	699,68
758	705,99
759	1410,25
760	1197,48
761	545,72
762	869,3
763	1411,11
764	962,29
765	479,31
766	964,86
767	1323,4
768	766,46
769	480,82
770	1006,16
771	1215,06
772	640,07
773	488,63
774	1029,46
775	1090,47
776	542,63
777	500,26
778	1036,54
779	1013,46
780	493,95
781	510,24
782	987,3
783	944,51
784	444,88
785	488,48
786	937,51
787	889,66
788	430,35
789	450,23
790	885,79
791	846,45
792	422,79
793	397,41
794	805,54
795	862,91
796	429,18
797	365,5
798	751,48
799	866,48
800	477,92
801	332,27
802	673,91
803	876,91
804	535,12
805	301,54
806	562,43
807	836,46
808	606,13
809	292,36
810	445,68
811	743,34
812	652,65
813	335,18
814	338,51
815	647,44
816	700,71
817	381,93
818	257,17
819	501,89
820	665,41
821	473,87
822	237,65
823	361,15
824	605,85
825	536,74
826	280,77
827	254,39
828	485,27
829	556,93
830	379,3
831	204,98
832	338,59
833	534,75
834	461,85
835	241,29
836	213,74
837	406,18
838	498,42
839	332,92
840	186,78
841	275,9
842	457,21
843	437,21
844	242,27
845	175,4
846	323,13
847	437,44
848	351,09
849	177,86
850	204,98
851	351,25
852	417,77
853	282,69
854	151,02
855	227,21
856	387,51
857	386,6
858	226,11
859	134,92
860	234,43
861	355,47
862	329
863	178,95
864	143,49
865	247,16
866	346,78
867	302,09
868	159,48
869	130,1
870	239,57
871	324,97
872	261,36
873	141,29
874	126,68
875	231,03
876	313,24
877	258,09
878	130,26
879	123,42
880	226,58
881	313,12
882	253,85
883	141,99
884	111,83
885	214,25
886	295,36
887	260,95
888	153,95
889	114,64
890	196,67
891	286,3
892	277
893	167,62
894	106,19
895	166,64
896	262,2
897	286,21
898	187,06
899	103,8
900	129,05
901	239,77
902	267,2
903	199,92
904	105,91
905	100,15
906	177,62
907	247,38
908	211,86
909	126,28
910	83,49
911	126,88
912	198,45
913	219,01
914	139,28
915	76,3
916	91,19
917	159,22
918	192,46
919	153,97
920	87,01
921	68,42
922	108,07
923	171,91
924	171,24
925	111,47
926	67,36
927	70,11
928	116,17
929	148,95
930	137,3
931	80,37
932	52,25
933	82,33
934	120,8
935	133,93
936	108,71
937	62,89
938	58,92
939	79,11
940	114,04
941	109,36
942	82,8
943	46,42
944	43,91
945	79,93
946	99,88
947	102,91
948	64,01
949	46,25
950	44,64
951	68,91
952	81,24
953	83,25
954	59,29
955	32,07
956	39,1
957	66,37
958	77,72
959	70,79
960	49,69
961	30,05
962	38,34
963	53,1
964	62,41
965	58,34
966	43,57
967	26,24
968	28,09
969	44,54
970	60,22
971	57,5
972	41,46
973	28,3
974	26,37
975	37,38
976	43,09
977	53,2
978	36,35
979	25,68
980	22,67
981	24,87
982	36,56
983	47,29
984	34,37
985	25,38
986	20,17
987	20,09
988	26,46
989	35,98
990	31,25
991	22,71
992	17,25
993	14,94
994	21,79
995	28,19
996	25,45
997	25,44
998	17,1
999	11,64
1000	16,35
