Data from USB2G573481__36__16-15-43-657.txt Node

Date: Tue Dec 02 16:15:43 EST 2025
User: maryl
Spectrometer: USB2G57348
Scans to average: 1
Trigger mode: 4
Integration Time (sec): 1,000000E-2
Electric dark correction enabled: true
Boxcar width: 0
XAxis mode: Wavelengths
Number of Pixels in Spectrum: 651
>>>>>Begin Spectral Data<<<<<
350	-0,14
351	-3,68
352	0,17
353	0,93
354	2,71
355	1,36
356	0,76
357	-2,75
358	-0,77
359	-1,9
360	0,07
361	1,8
362	-1,96
363	0,84
364	-0,09
365	-1,08
366	1,69
367	3,86
368	2,84
369	1,61
370	6,68
371	2,14
372	2
373	2,57
374	-0,12
375	-0,22
376	3,37
377	3,22
378	2,2
379	-0,42
380	3,37
381	6,01
382	5,17
383	4,77
384	5,95
385	8,14
386	4,61
387	6
388	6,92
389	8,35
390	4,87
391	6,17
392	9,05
393	9,99
394	9,61
395	12,86
396	6,9
397	7,07
398	8,62
399	6,92
400	10,45
401	13,92
402	11,73
403	16,75
404	19,04
405	17,81
406	17,62
407	18,19
408	16,91
409	11,9
410	15,2
411	19,91
412	18,45
413	21,97
414	22,92
415	23,43
416	24,96
417	24,76
418	27,42
419	24,01
420	22,65
421	25,37
422	23,36
423	31,67
424	28,84
425	36,45
426	37,44
427	41,98
428	43,18
429	40,68
430	40,94
431	39,69
432	41,11
433	39,38
434	41,82
435	44,02
436	42,63
437	45,99
438	56,2
439	59,91
440	58,77
441	63,29
442	62,59
443	66,82
444	59,44
445	61,7
446	65,78
447	62,57
448	59,08
449	67,86
450	75,97
451	82,96
452	91,6
453	93,86
454	102,69
455	101,73
456	99,88
457	95,92
458	98,39
459	95,79
460	97,79
461	105,72
462	114,69
463	122,76
464	134,9
465	146,39
466	162,21
467	173,11
468	174,72
469	177,25
470	184,15
471	173,21
472	180,36
473	169,81
474	181,21
475	195,55
476	210,71
477	241,12
478	260,49
479	287,27
480	305,19
481	314,12
482	331,95
483	341,5
484	337
485	342,1
486	333,85
487	337,09
488	341,09
489	366,41
490	399,82
491	435,47
492	463,62
493	494,65
494	522,27
495	559,53
496	570,27
497	577,58
498	577,87
499	582,54
500	557,32
501	539,29
502	533,32
503	559,79
504	561,73
505	598,49
506	619,5
507	666,7
508	714,19
509	766,82
510	789,93
511	800,06
512	804,15
513	800,6
514	784,61
515	773,61
516	741,08
517	711,26
518	734,27
519	729,37
520	760,57
521	792,09
522	840,24
523	896,14
524	958,96
525	1025,13
526	1053,94
527	1075,39
528	1078,71
529	1091,83
530	1062,91
531	1004
532	971,45
533	966,98
534	940,87
535	953,53
536	1009,95
537	1050,83
538	1109,13
539	1179,96
540	1244,29
541	1304,48
542	1392,04
543	1386,52
544	1407,47
545	1421,37
546	1404,42
547	1341,9
548	1304,12
549	1282,91
550	1264,4
551	1218,02
552	1215,01
553	1241,55
554	1279,36
555	1356,02
556	1418,54
557	1510,37
558	1590,85
559	1637,12
560	1665,87
561	1717,14
562	1703,63
563	1674,51
564	1647,92
565	1555,88
566	1515,35
567	1436,07
568	1397,93
569	1365,39
570	1358,9
571	1375,73
572	1416,19
573	1459,05
574	1430,96
575	1557,89
576	1624,43
577	1707,65
578	1787,77
579	1791,69
580	1785,47
581	1769,91
582	1728,11
583	1699,04
584	1584,01
585	1532,05
586	1480,58
587	1406,92
588	1361,89
589	1347,32
590	1349,8
591	1412,63
592	1476,87
593	1508,97
594	1614,27
595	1720,99
596	1745,95
597	1838,09
598	1900,09
599	1920,27
600	1830,65
601	1905,02
602	1772,65
603	1797,95
604	1746,35
605	1661,32
606	1596,93
607	1550,3
608	1490,89
609	1478,56
610	1484,59
611	1510,28
612	1550,75
613	1643,46
614	1691,95
615	1769,93
616	1841,49
617	1933,69
618	2007,66
619	2055,93
620	2035,06
621	2059,46
622	2024,72
623	1959,44
624	1860,18
625	1799,67
626	1717,57
627	1622,96
628	1577,85
629	1508,74
630	1469,15
631	1465,89
632	1461,41
633	1498,78
634	1536,94
635	1601,85
636	1680,23
637	1741,1
638	1834,16
639	1902,18
640	1921,27
641	1912,44
642	1967,04
643	1954,49
644	1925,85
645	1855,16
646	1837,83
647	1772,51
648	1659,5
649	1592,74
650	1542,23
651	1466,18
652	1396,26
653	1382,17
654	1375,32
655	1376,04
656	1387,89
657	1433,15
658	1508,52
659	1590,43
660	1682,69
661	1733,43
662	1779,14
663	1851,91
664	1885,34
665	1932,49
666	1924,56
667	1918,39
668	1874,22
669	1819,91
670	1772,41
671	1707,1
672	1622,43
673	1541,24
674	1482,55
675	1424,03
676	1383,45
677	1342,01
678	1329,09
679	1351,03
680	1390,84
681	1405,61
682	1494,76
683	1547,32
684	1622,81
685	1711,65
686	1773,28
687	1833,68
688	1886,96
689	1918,48
690	1982,61
691	2001,22
692	1967,41
693	1932,67
694	1887,85
695	1776,51
696	1707,77
697	1635,71
698	1562,8
699	1466,76
700	1402,61
701	1354,28
702	1302,07
703	1271,3
704	1230,29
705	1241,09
706	1257,31
707	1278,22
708	1330,43
709	1360,04
710	1443,78
711	1515,07
712	1554,3
713	1606,92
714	1647,42
715	1691,74
716	1710,51
717	1722,59
718	1739,48
719	1701,75
720	1690,8
721	1653,28
722	1589,3
723	1524,92
724	1432,9
725	1383,13
726	1305,57
727	1238,37
728	1194,71
729	1126,22
730	1091,87
731	1045,9
732	1026,09
733	1048,25
734	1031,5
735	1056,13
736	1070,08
737	1096,95
738	1132,02
739	1199,54
740	1212,35
741	1259,32
742	1313,99
743	1333,59
744	1348,98
745	1370,41
746	1375,09
747	1363,03
748	1366,03
749	1314,22
750	1284,8
751	1223,86
752	1175,24
753	1118,52
754	1060,77
755	1008,49
756	968,81
757	905,66
758	854,97
759	834,52
760	790,6
761	758,52
762	732,17
763	739,61
764	743,86
765	735,5
766	748,15
767	782
768	798,93
769	824,65
770	861,52
771	861,9
772	886,03
773	899,61
774	920,02
775	909,92
776	921,14
777	908,52
778	913,81
779	908,27
780	889,78
781	878,24
782	838,23
783	796,13
784	765,67
785	730,68
786	693,81
787	653,73
788	627,78
789	575,29
790	549,51
791	525,96
792	501,15
793	470,51
794	453,26
795	468,91
796	475,34
797	475,86
798	474,06
799	489,21
800	512,64
801	530,64
802	543,4
803	562,58
804	567,7
805	574,9
806	598,31
807	604,51
808	627,26
809	638,13
810	627,22
811	621,68
812	630,48
813	619,96
814	600,21
815	574,45
816	564,93
817	537,49
818	507,9
819	483,84
820	462,43
821	454,07
822	420,55
823	391,21
824	371,07
825	356,92
826	328,75
827	329,5
828	318,09
829	305,18
830	296,19
831	290,52
832	290,3
833	293,52
834	300,65
835	304,62
836	305,46
837	309,58
838	325,43
839	331,49
840	342,87
841	348,95
842	356,53
843	359,75
844	362,82
845	367,04
846	370,87
847	369,97
848	367,17
849	360,25
850	360,78
851	355,3
852	344,23
853	339,44
854	321,18
855	309,05
856	303,33
857	293,67
858	276,57
859	259,45
860	252,55
861	241,53
862	236,18
863	220,16
864	209,52
865	197
866	191,64
867	186,9
868	183,56
869	180,76
870	176,18
871	170,86
872	174,18
873	178,22
874	175,4
875	184,22
876	188,76
877	194,93
878	199,8
879	206,53
880	216,75
881	212,78
882	215,54
883	228,78
884	230,51
885	241,89
886	239,26
887	247,42
888	254,17
889	251,28
890	245,19
891	247,99
892	240,35
893	239,68
894	231,02
895	221,22
896	215,85
897	208,33
898	207,69
899	192,78
900	182,87
901	171
902	164,93
903	155,34
904	140,57
905	136,29
906	133,25
907	131,87
908	123,65
909	118,37
910	120,8
911	110,48
912	113,37
913	110,18
914	114,57
915	114,61
916	115,96
917	113,88
918	115,21
919	112,28
920	116,84
921	123,37
922	120,72
923	122,98
924	120,19
925	124,96
926	125,43
927	116,7
928	120,02
929	129,95
930	122,5
931	124,07
932	118,12
933	119,65
934	117,47
935	109,41
936	90,66
937	105,45
938	94,85
939	107,36
940	92,98
941	85,96
942	84,5
943	82,43
944	73,36
945	73,21
946	65,61
947	60,5
948	59,03
949	60,62
950	55,22
951	51,65
952	45,84
953	49,32
954	48,05
955	46,22
956	44,71
957	39,93
958	48,35
959	43,05
960	42,22
961	42,94
962	43,91
963	42,05
964	36,41
965	46,45
966	38,07
967	41,11
968	40,05
969	43,08
970	41,25
971	39,45
972	45,25
973	42,12
974	42,78
975	39,69
976	39,59
977	39,85
978	39,25
979	40,97
980	40,02
981	39,09
982	35,58
983	37,9
984	33,63
985	33,42
986	26,85
987	34,12
988	33,83
989	29,22
990	28,24
991	30,74
992	22,96
993	27,07
994	22,27
995	20,06
996	20,45
997	18,74
998	14,88
999	17,46
1000	16,96
