Data from USB2G573481__2__13-53-40-056.txt Node

Date: Tue Dec 09 13:53:40 EST 2025
User: maryl
Spectrometer: USB2G57348
Scans to average: 1
Trigger mode: 4
Integration Time (sec): 1,000000E-2
Electric dark correction enabled: true
Boxcar width: 0
XAxis mode: Wavelengths
Number of Pixels in Spectrum: 651
>>>>>Begin Spectral Data<<<<<
350	-0,31
351	-0,59
352	-1,68
353	-1,38
354	3,96
355	-1,4
356	-4,39
357	0,55
358	-0,14
359	-0,52
360	-4,28
361	1,38
362	1,4
363	1,85
364	-0,43
365	1,3
366	-0,48
367	-0,44
368	1,04
369	0,73
370	3,5
371	4,6
372	1,5
373	3,1
374	1,96
375	3,65
376	2,87
377	1,91
378	1,51
379	2,89
380	1,05
381	6,74
382	1,85
383	5,82
384	7,63
385	4,99
386	4,03
387	7,65
388	7,72
389	4,89
390	6,58
391	6,35
392	12,09
393	11,75
394	13,35
395	12,67
396	17,67
397	19,81
398	22,81
399	21,73
400	25,58
401	24,26
402	25,46
403	26,53
404	24,97
405	28,5
406	26,81
407	25,27
408	22,76
409	24,34
410	23,39
411	21,66
412	17,05
413	19,73
414	13,66
415	13,84
416	13,64
417	13,69
418	14,75
419	17,65
420	15,72
421	16,44
422	25,11
423	23,17
424	27,72
425	31,3
426	35,56
427	49,64
428	48,67
429	54,74
430	61,7
431	69,54
432	78,8
433	86,21
434	93,61
435	91,32
436	96,34
437	105,05
438	119,56
439	121,7
440	136,8
441	131,23
442	138,51
443	136,98
444	147,16
445	147,61
446	156,27
447	157,17
448	145,94
449	150,59
450	149,6
451	145,44
452	146,61
453	141,93
454	139,6
455	133,05
456	134,52
457	130,69
458	125,27
459	119,95
460	112,98
461	106,56
462	99,54
463	95,55
464	95,63
465	90,13
466	91,51
467	93,73
468	87,33
469	80,21
470	78,24
471	76,8
472	76,34
473	80,16
474	68,09
475	73,51
476	73,2
477	82,99
478	87,01
479	91,39
480	101,35
481	110,14
482	118,84
483	135,27
484	152,78
485	170,51
486	196,08
487	198,39
488	224,91
489	250,42
490	272,47
491	295,08
492	321,91
493	359,24
494	383,46
495	417,19
496	451,06
497	483,76
498	521,18
499	553,18
500	597,07
501	628,23
502	686,87
503	717,24
504	753,53
505	791,74
506	824,98
507	870,06
508	919,22
509	964,53
510	1014,63
511	1050,96
512	1110,5
513	1144,96
514	1197,35
515	1233,96
516	1284,93
517	1350,87
518	1385,48
519	1421,44
520	1489,93
521	1513,19
522	1482,85
523	1573,06
524	1611,66
525	1685,53
526	1784,59
527	1816,86
528	1861,73
529	1897,86
530	1950,89
531	1980,17
532	2037,37
533	2077,6
534	2103,02
535	2169,31
536	2237,16
537	2277,28
538	2314,29
539	2356,73
540	2433,61
541	2427,67
542	2496,25
543	2531,56
544	2579,11
545	2624,24
546	2662,51
547	2681,28
548	2698,37
549	2764,73
550	2817,1
551	2856,72
552	2888,42
553	2883,37
554	2895,8
555	2916,87
556	2956,55
557	2959,73
558	2995,46
559	3000,55
560	3034,78
561	3039,39
562	3050,88
563	3066,7
564	3103,13
565	3065,13
566	3085,66
567	3110,76
568	3120,79
569	3142,98
570	3119,7
571	3166,64
572	3194,13
573	3061,33
574	3131,85
575	3024,82
576	3038,97
577	3190,33
578	3166,24
579	3149,96
580	3132,84
581	3132,74
582	3119,39
583	3137,23
584	3127,71
585	3101,91
586	3118,03
587	3151,97
588	3121,48
589	3125,25
590	3151,56
591	3146,26
592	3194,61
593	3169,73
594	3182,3
595	3196,27
596	3216,13
597	3233,84
598	3252,17
599	3274,7
600	3208,28
601	3183,52
602	3178,27
603	3249,57
604	3344,36
605	3296,51
606	3318,36
607	3318,82
608	3305,57
609	3345,05
610	3369,49
611	3354,18
612	3363,5
613	3336,52
614	3347,3
615	3316,78
616	3324,32
617	3354,48
618	3350,66
619	3374,44
620	3397,41
621	3379,76
622	3391,9
623	3345,09
624	3379,83
625	3363,24
626	3357,72
627	3351,05
628	3344,9
629	3360,9
630	3341,23
631	3328,72
632	3351,66
633	3312,75
634	3329,27
635	3321,13
636	3336,87
637	3303,49
638	3310,96
639	3288,47
640	3258,5
641	3242,08
642	3273,44
643	3265,66
644	3241,58
645	3250,73
646	3263,53
647	3243,53
648	3209,3
649	3217,52
650	3221,43
651	3200,64
652	3200,75
653	3199,62
654	3190,4
655	3186,53
656	3186,98
657	3192,71
658	3181,11
659	3178,92
660	3198,57
661	3203,11
662	3220,45
663	3207,59
664	3207,73
665	3205,92
666	3208,23
667	3230,66
668	3215,02
669	3190,41
670	3205,5
671	3208,48
672	3224,29
673	3183,12
674	3166
675	3129,55
676	3201,1
677	3239,13
678	3233,36
679	3241,34
680	3241,24
681	3229,77
682	3224,81
683	3239,93
684	3208,19
685	3215,61
686	3233,44
687	3220,69
688	3216,53
689	3216,63
690	3212,72
691	3204,78
692	3186,66
693	3158,94
694	3150,27
695	3138,25
696	3096,68
697	3102,46
698	3089,17
699	3088,59
700	3066,19
701	3041,55
702	3034,41
703	3006,48
704	3014,74
705	2970,14
706	2979,91
707	2954,8
708	2953,84
709	2928,19
710	2911,09
711	2894,09
712	2885,46
713	2858,22
714	2827,89
715	2775,47
716	2779,7
717	2726,69
718	2728,92
719	2683,59
720	2673,54
721	2616,89
722	2631,75
723	2575,14
724	2574,6
725	2563,82
726	2525,18
727	2492,74
728	2455,12
729	2421,42
730	2408,92
731	2400,23
732	2367,97
733	2370,55
734	2302,11
735	2253,41
736	2227,81
737	2195,77
738	2180,64
739	2175,5
740	2142,86
741	2100,89
742	2092,28
743	2026,38
744	2018,23
745	2002,42
746	1946
747	1938,46
748	1902,69
749	1864,13
750	1858,26
751	1796,71
752	1773,73
753	1747,02
754	1712,49
755	1694,36
756	1669,35
757	1632,65
758	1614,76
759	1585,39
760	1557,6
761	1534,7
762	1484,07
763	1464,06
764	1424,07
765	1401,04
766	1380,93
767	1362,26
768	1318,64
769	1297
770	1265,7
771	1238,25
772	1214,13
773	1195,93
774	1182,22
775	1145,75
776	1131,6
777	1105,42
778	1075,95
779	1068,82
780	1032,02
781	999,21
782	979,43
783	956,01
784	932,78
785	917,38
786	883,87
787	862,22
788	842,94
789	828,38
790	803,21
791	789,92
792	768,45
793	752,86
794	742,27
795	738,63
796	733,19
797	726,57
798	724,69
799	703,72
800	697,81
801	686,34
802	667,87
803	654,44
804	625,79
805	640,34
806	615,26
807	600,06
808	581,36
809	584,09
810	560,61
811	556
812	532,51
813	511,5
814	506,03
815	489,62
816	472,49
817	467,88
818	446,58
819	443,29
820	426,52
821	413,7
822	405,82
823	396,93
824	389,67
825	375,79
826	359,05
827	357,06
828	342,82
829	340,5
830	327,76
831	313,25
832	309,64
833	305,3
834	297,99
835	285,12
836	279,94
837	272,5
838	265,59
839	265,47
840	255,97
841	234,64
842	248,32
843	234,3
844	227,65
845	228,92
846	221,68
847	202,59
848	203,48
849	201,49
850	201,52
851	191,83
852	192,76
853	180,87
854	182,68
855	169,83
856	162,06
857	160,2
858	162,35
859	161,5
860	152,27
861	152,46
862	146,23
863	134,51
864	135,34
865	136,76
866	134,66
867	126,72
868	126,35
869	124,21
870	111,57
871	114,05
872	110,78
873	110,89
874	103,67
875	96,78
876	101,68
877	97,12
878	93,47
879	92,42
880	85,5
881	92,2
882	87,25
883	86,35
884	89,16
885	87,26
886	89,37
887	85,07
888	86,76
889	83,85
890	79,93
891	81,24
892	78,67
893	79
894	78,79
895	77,85
896	78
897	73,1
898	70,18
899	66,47
900	65,64
901	66,88
902	66,1
903	67,08
904	54,7
905	61,15
906	56,08
907	63,68
908	58,26
909	52,84
910	54,5
911	54,12
912	50,49
913	51,61
914	47,79
915	44,98
916	50,72
917	46,62
918	43,38
919	42,45
920	40,56
921	40,04
922	39,41
923	37,38
924	34,54
925	36,99
926	40,64
927	34,37
928	32,87
929	34,34
930	31,1
931	30,24
932	30,66
933	32,24
934	31,9
935	29,75
936	29,46
937	30,26
938	27,34
939	29,72
940	27,26
941	27,63
942	26,87
943	24,57
944	25,6
945	24,39
946	24,67
947	28,58
948	22,38
949	22,62
950	21,83
951	19,19
952	23,5
953	21,66
954	25,42
955	19,73
956	21,53
957	24,63
958	19,08
959	18,98
960	18,25
961	17,65
962	22,62
963	16,26
964	23,46
965	17,7
966	20,42
967	19,63
968	13,89
969	18,81
970	16,56
971	19,84
972	18,47
973	13,44
974	18,53
975	15,49
976	18,14
977	17,27
978	14,33
979	14,13
980	11,44
981	15,11
982	16,25
983	12,61
984	16,58
985	15,74
986	12,47
987	15,48
988	11,88
989	16,65
990	10,07
991	13,12
992	14,43
993	8,91
994	12,62
995	14,29
996	12,64
997	10,41
998	10,66
999	12,22
1000	8,71
