Data from USB2G573481__6__15-15-14-733.txt Node

Date: Tue Dec 02 15:15:14 EST 2025
User: maryl
Spectrometer: USB2G57348
Scans to average: 1
Trigger mode: 4
Integration Time (sec): 1,500000E-2
Electric dark correction enabled: true
Boxcar width: 0
XAxis mode: Wavelengths
Number of Pixels in Spectrum: 651
>>>>>Begin Spectral Data<<<<<
350	0,8
351	-2,15
352	0,96
353	-0,48
354	0,87
355	-1,86
356	-2,36
357	0,38
358	-3,15
359	0,93
360	1,9
361	1,59
362	-3,34
363	0,46
364	1,48
365	0,38
366	-1,93
367	0,36
368	1,56
369	2,08
370	0,6
371	2,14
372	0,47
373	-0,21
374	2,14
375	4,81
376	3,89
377	1,66
378	4,63
379	4
380	1,31
381	5,57
382	4,31
383	3,59
384	3,52
385	9,82
386	6,18
387	4,55
388	7,47
389	9,64
390	7,3
391	10,19
392	13,47
393	16,4
394	13,14
395	14,53
396	13,47
397	17,55
398	19,19
399	17,37
400	20,01
401	17,2
402	22,28
403	21,25
404	21,52
405	25,54
406	25,46
407	22,68
408	25,57
409	23,37
410	31,94
411	28,52
412	29,55
413	32,99
414	30,62
415	34,99
416	40,14
417	41,74
418	42,03
419	40,49
420	37,81
421	43,56
422	46,54
423	45,46
424	50,51
425	54,42
426	58,04
427	58,32
428	60,36
429	61,65
430	64,53
431	63,86
432	68,88
433	70,9
434	67,78
435	76,27
436	75,67
437	75,88
438	84,76
439	87,63
440	88,68
441	88,66
442	90,5
443	100,04
444	105,45
445	102,81
446	107,1
447	110,28
448	110,49
449	115,68
450	121,54
451	121,11
452	128,22
453	137,06
454	139,85
455	143,82
456	146,01
457	163,51
458	168,15
459	172,5
460	176,39
461	190,5
462	196,66
463	204,67
464	205,5
465	216,7
466	232,47
467	238,89
468	247,34
469	263,54
470	272,65
471	293,28
472	305,58
473	323,32
474	312,37
475	338,84
476	354,88
477	363,89
478	387
479	394,09
480	428,11
481	446,1
482	461,3
483	482,53
484	511,42
485	552,28
486	556,79
487	577,21
488	609,47
489	633,11
490	658,58
491	677,35
492	703,01
493	728,15
494	738,17
495	779,76
496	796,69
497	806,02
498	848,72
499	860,02
500	872,04
501	886,99
502	939,2
503	946,18
504	951,44
505	956,17
506	973,01
507	1022,03
508	1047,66
509	1051,67
510	1069,52
511	1105,59
512	1128,43
513	1151,86
514	1170,42
515	1203,84
516	1219,06
517	1240,48
518	1274,29
519	1293,15
520	1307,22
521	1287,87
522	1307,06
523	1350,76
524	1386,37
525	1401,77
526	1418,41
527	1462,89
528	1497,47
529	1506,43
530	1553,08
531	1567,84
532	1577,34
533	1610,56
534	1615,28
535	1653,14
536	1711,05
537	1728,55
538	1733,31
539	1805
540	1796,47
541	1811,22
542	1860,2
543	1874,21
544	1886,57
545	1981,68
546	1962,01
547	1960,65
548	2031,71
549	2025,41
550	2067,34
551	2101,21
552	2101,97
553	2081,57
554	2146,54
555	2099,28
556	2154,68
557	2191,64
558	2180,59
559	2232,77
560	2204,76
561	2225,73
562	2242,53
563	2226,42
564	2309,91
565	2314,15
566	2271,78
567	2311,33
568	2300,03
569	2309,01
570	2331
571	2333,36
572	2336,11
573	2299,04
574	2215,5
575	2281,93
576	2236,33
577	2381,92
578	2328,58
579	2341,26
580	2318,36
581	2304,67
582	2361,08
583	2289,09
584	2344,42
585	2287,24
586	2386,29
587	2314,11
588	2332,37
589	2336,45
590	2328,62
591	2412,36
592	2359,63
593	2417,38
594	2367,47
595	2409,98
596	2365,29
597	2426,15
598	2469,26
599	2489,16
600	2398,09
601	2448,91
602	2358,78
603	2442,63
604	2578,56
605	2473,3
606	2577,51
607	2500,28
608	2595,69
609	2531,45
610	2598,68
611	2521,19
612	2619,61
613	2598,18
614	2637,82
615	2512,68
616	2590,34
617	2569,96
618	2593,95
619	2556,13
620	2621,63
621	2561,61
622	2628,13
623	2575,19
624	2633,07
625	2577,67
626	2632,69
627	2558,87
628	2610,32
629	2514,87
630	2602,06
631	2492,05
632	2608,95
633	2467,75
634	2601,46
635	2462,23
636	2588,53
637	2435,3
638	2571,51
639	2441,38
640	2483,63
641	2424,01
642	2484,92
643	2418,38
644	2446,32
645	2424,41
646	2374,4
647	2486,56
648	2312,32
649	2442,47
650	2318,26
651	2479,75
652	2355,33
653	2443,11
654	2371,02
655	2382,06
656	2445,85
657	2354,08
658	2470,59
659	2309,77
660	2442,51
661	2312,83
662	2428,06
663	2388,8
664	2341,22
665	2408,7
666	2306,99
667	2446,11
668	2314,51
669	2408,9
670	2391,08
671	2373,51
672	2428,68
673	2308,39
674	2395,98
675	2261,26
676	2418,42
677	2410,04
678	2372,22
679	2503,39
680	2347,74
681	2479,8
682	2396,56
683	2405,18
684	2479,04
685	2330,96
686	2461,73
687	2355,63
688	2435,29
689	2434,22
690	2284,88
691	2458,08
692	2349,8
693	2350,55
694	2431,57
695	2268,37
696	2401,54
697	2282,2
698	2300,15
699	2363,99
700	2191,44
701	2354,1
702	2281,57
703	2225,54
704	2348,25
705	2154,72
706	2277,93
707	2269,39
708	2146,98
709	2291,18
710	2169,52
711	2169,12
712	2245,46
713	2057,21
714	2176,25
715	2128,44
716	1999,77
717	2166,52
718	2064,14
719	2075,25
720	2167,37
721	1974,77
722	2090,42
723	2061,16
724	1925,54
725	2045,07
726	1962,64
727	1903,91
728	2003,41
729	1884,83
730	1875,37
731	1943,55
732	1822,9
733	1837,21
734	1931,02
735	1758,86
736	1840,45
737	1847,72
738	1709,39
739	1794,9
740	1762,84
741	1679,82
742	1747,96
743	1700,52
744	1612,77
745	1712,58
746	1618,79
747	1568,9
748	1664,92
749	1581,92
750	1524,45
751	1642,81
752	1533,52
753	1483,54
754	1563,14
755	1491,64
756	1427,36
757	1532,23
758	1455,75
759	1375,2
760	1485,3
761	1400,68
762	1326,26
763	1419,67
764	1342,52
765	1261,92
766	1331,72
767	1318,16
768	1191,52
769	1263,78
770	1244,7
771	1186,95
772	1221,9
773	1197,66
774	1102,63
775	1137,78
776	1162,77
777	1069,78
778	1062,91
779	1123,1
780	1051,6
781	1016,97
782	1054,8
783	1007,03
784	949,49
785	1006,69
786	974,75
787	881,5
788	932,83
789	953,63
790	886,83
791	892,66
792	927,11
793	872,07
794	853,86
795	911,53
796	881,06
797	812,48
798	862,97
799	878,44
800	813,36
801	819,4
802	863,1
803	815
804	776,51
805	823,48
806	817,16
807	761,19
808	767,85
809	789,46
810	745,33
811	718,06
812	742,51
813	750,45
814	688,72
815	694,44
816	704,45
817	673,93
818	626,09
819	647,34
820	650,01
821	601,52
822	607,15
823	629,96
824	591,81
825	551,82
826	575,17
827	588,53
828	547,77
829	538,15
830	545,23
831	539,15
832	510,42
833	516,33
834	527,77
835	488,86
836	471,18
837	485,35
838	495,26
839	470,56
840	448,73
841	471,58
842	464,48
843	433,91
844	441,56
845	464,91
846	443,98
847	405,55
848	421,39
849	427,45
850	413,42
851	391,07
852	399,65
853	415,47
854	398,12
855	379,33
856	377,5
857	386,97
858	376,89
859	346,27
860	364,11
861	374,52
862	350,14
863	326,5
864	350,1
865	356,69
866	330,53
867	314,53
868	324,17
869	329,06
870	311,1
871	298,04
872	316,38
873	311,58
874	302,87
875	295,7
876	295,4
877	297,72
878	295,1
879	271,29
880	285,94
881	291,75
882	285,79
883	272,98
884	281,32
885	295,11
886	293,8
887	275,29
888	279,13
889	290,45
890	292,92
891	279,36
892	280,58
893	284,17
894	279,28
895	266,64
896	258,83
897	266,72
898	268,93
899	256,92
900	244,28
901	245,41
902	250,57
903	249,22
904	236,4
905	236,99
906	240,76
907	244,47
908	230,49
909	212,74
910	219,66
911	220,22
912	214,78
913	210,1
914	198,51
915	194,16
916	203,63
917	177,54
918	178
919	179,27
920	185,81
921	183,01
922	164,63
923	159,15
924	172,24
925	167,63
926	156,66
927	147,73
928	155,84
929	148,6
930	138,23
931	140,25
932	128,7
933	132,26
934	134,17
935	125,95
936	119,38
937	119,79
938	129,28
939	125,62
940	111,08
941	108,53
942	108,78
943	108,82
944	110,87
945	96,44
946	90,19
947	99,22
948	96,16
949	95,48
950	85,54
951	90,04
952	88,67
953	88,36
954	85,61
955	80,18
956	76,97
957	79,55
958	79,74
959	76,05
960	71,2
961	65,25
962	69,5
963	69,51
964	63,21
965	62,14
966	61,36
967	63,57
968	65,19
969	61,38
970	55,49
971	55,66
972	57,6
973	54,31
974	49,57
975	51,61
976	44,16
977	46,46
978	48,33
979	49,47
980	42,83
981	45,19
982	40,8
983	39,5
984	41,27
985	39,32
986	38,61
987	37,56
988	38,3
989	33,72
990	33,26
991	32
992	33,69
993	32,73
994	31,51
995	30,21
996	26,53
997	26,87
998	24,64
999	29,48
1000	21,47
